# XDI/1.0 Athena/0.9.26
# Element.edge:                  L3
# Element.symbol:                Pt
# Column.1:                      energy eV
# Column.2:                      xmu
# Column.3:                      bkg
# Column.4:                      pre_edge
# Column.5:                      post_edge
# Column.6:                      der
# Column.7:                      sec
# Column.8:                      i0
# Column.9:                      chi(e)
# Athena.e0:                     11564.429
# Athena.eshift:                 0.000
# Athena.rbkg:                   1.0
# Athena.importance:             1
# Athena.standard:               None
# Athena.bkg_kweight:            2
# Athena.edge_step:              0.1472742
# Athena.fixed_step:             no
# Athena.pre_edge_range:         -150 -30
# Athena.pre_edge_line:          13.225389 - 0.0011391 * E
# Athena.normalization_range:    50 300
# Athena.post_edge_polynomial:   51.715742 - 0.00775103 * E + 2.85040146e-007 * E^2 + 0 * E^3
# Athena.spline_range_energy:    0.000 1027.484
# Athena.clamps:                 0 24
# Athena.spline_range_k:         0.000 16.422
# Athena.kweight:                2
# Athena.window:                 hanning
# Athena.phase_correction:       no
# Athena.k_range:                2 6.77
# Athena.dk:                     1
# Athena.r_range:                1 3
# Athena.dr:                     0.0
# Athena.window:                 hanning
# Athena.plot_multiplier:        1
# Athena.y_offset:               0
# ///
#------------------------
#   e         xmu       bkg       pre_edge       post_edge       der       sec       i0        chie
  11349.987       0.29732655       0.29732655       0.29658802       0.46110401      -0.90243843E-03  -0.14102270E-04    45097.143        0.0000000
  11359.987       0.28830216       0.28830216       0.28519700       0.44832621      -0.10434611E-02  -0.13857655E-04    44296.538        0.0000000
  11369.987       0.27645732       0.27645732       0.27380597       0.43560542      -0.11795915E-02  -0.69678637E-05    46168.846        0.0000000
  11379.987       0.26471033       0.26471033       0.26241494       0.42294164      -0.11828184E-02  -0.31022846E-06    46337.692        0.0000000
  11389.987       0.25280096       0.25280096       0.25102392       0.41033486      -0.11857961E-02   0.49764638E-07    46825.385        0.0000000
  11399.987       0.24099441       0.24099441       0.23963289       0.39778510      -0.11818231E-02   0.33199394E-06    47228.846        0.0000000
  11409.987       0.22916449       0.22916449       0.22824186       0.38529234      -0.11791562E-02   0.48772228E-06    47292.308        0.0000000
  11419.987       0.21741129       0.21741129       0.21685083       0.37285658      -0.11720687E-02   0.62937127E-07    48376.923        0.0000000
  11429.987       0.20572312       0.20572312       0.20545981       0.36047784      -0.11778975E-02  -0.39753852E-06    48880.000        0.0000000
  11439.987       0.19385334       0.19385334       0.19406878       0.34815611      -0.11800194E-02   0.86063928E-06    49166.538        0.0000000
  11449.987       0.18212273       0.18212273       0.18267775       0.33589138      -0.11606847E-02   0.20084039E-05    49368.462        0.0000000
  11459.987       0.17063964       0.17063964       0.17128673       0.32368366      -0.11398514E-02   0.15333843E-05    49919.231        0.0000000
  11469.987       0.15932571       0.15932571       0.15989570       0.31153295      -0.11300170E-02   0.95611196E-07    50280.000        0.0000000
  11479.987       0.14803930       0.14803930       0.14850467       0.29943924      -0.11379391E-02  -0.28138210E-06    50736.154        0.0000000
  11489.987       0.13656692       0.13656692       0.13711364       0.28740255      -0.11356447E-02   0.10850630E-05    51084.800        0.0000000
  11499.987       0.12532641       0.12532641       0.12572262       0.27542286      -0.11162379E-02   0.16682746E-05    51622.692        0.0000000
  11509.987       0.11424217       0.11424217       0.11433159       0.26350018      -0.11022792E-02   0.25768505E-05    51724.231        0.0000000
  11519.987       0.10328083       0.10328083       0.10294056       0.25163451      -0.10647009E-02   0.81289057E-05    52049.600        0.0000000
  11529.987       0.92948148E-01   0.92948148E-01   0.91549536E-01   0.23982585      -0.93970105E-03   0.78517347E-05    52353.600        0.0000000
  11539.987       0.84486804E-01   0.84486804E-01   0.80158509E-01   0.22807419      -0.90766617E-03  -0.19232908E-04    52419.444        0.0000000
  11544.000       0.80229022E-01   0.80229022E-01   0.75587290E-01   0.22337428      -0.12092118E-02  -0.19123390E-03    52298.333        0.0000000
  11544.400       0.79150553E-01   0.79150553E-01   0.75131649E-01   0.22290632      -0.17515814E-02   0.20501628E-03    52075.734        0.0000000
  11544.800       0.78827757E-01   0.78827757E-01   0.74676008E-01   0.22243844      -0.10451988E-02   0.12678221E-02    52099.072        0.0000000
  11545.200       0.78314394E-01   0.78314394E-01   0.74220366E-01   0.22197066      -0.73732369E-03   0.85754265E-03    52159.673        0.0000000
  11545.600       0.78237898E-01   0.78237898E-01   0.73764725E-01   0.22150297      -0.35916465E-03   0.18562904E-03    52035.533        0.0000000
  11546.000       0.78027062E-01   0.78027062E-01   0.73309084E-01   0.22103537      -0.58882045E-03  -0.23298034E-03    52058.004        0.0000000
  11546.400       0.77766842E-01   0.77766842E-01   0.72853443E-01   0.22056786      -0.54554892E-03  -0.24335225E-04    51780.964        0.0000000
  11546.800       0.77590623E-01   0.77590623E-01   0.72397802E-01   0.22010044      -0.60828863E-03  -0.32450827E-04    52123.744        0.0000000
  11547.200       0.77280211E-01   0.77280211E-01   0.71942161E-01   0.21963311      -0.57150958E-03   0.46178650E-03    52013.390        0.0000000
  11547.600       0.77133415E-01   0.77133415E-01   0.71486520E-01   0.21916588      -0.23885943E-03   0.23027636E-03    52483.240        0.0000000
  11548.000       0.77089123E-01   0.77089123E-01   0.71030879E-01   0.21869873      -0.38728849E-03  -0.33923832E-03    52410.532        0.0000000
  11548.400       0.76823584E-01   0.76823584E-01   0.70575238E-01   0.21823168      -0.51025009E-03   0.34984161E-03    52218.623        0.0000000
  11548.800       0.76680923E-01   0.76680923E-01   0.70119597E-01   0.21776472      -0.10741520E-03   0.16179370E-03    51926.754        0.0000000
  11549.200       0.76737652E-01   0.76737652E-01   0.69663956E-01   0.21729785      -0.38081512E-03  -0.87742853E-03    52004.836        0.0000000
  11549.600       0.76376271E-01   0.76376271E-01   0.69208314E-01   0.21683107      -0.80935803E-03   0.28878799E-03    52195.492        0.0000000
  11550.000       0.76090166E-01   0.76090166E-01   0.68752673E-01   0.21636438      -0.14978473E-03   0.12100059E-02    52374.232        0.0000000
  11550.400       0.76256443E-01   0.76256443E-01   0.68297032E-01   0.21589778       0.15864666E-03  -0.56826403E-03    52282.588        0.0000000
  11550.800       0.76217083E-01   0.76217083E-01   0.67841391E-01   0.21543127      -0.60439595E-03  -0.65195397E-03    52581.555        0.0000000
  11551.200       0.75772927E-01   0.75772927E-01   0.67385750E-01   0.21496486      -0.36291651E-03   0.96922675E-03    52596.888        0.0000000
  11551.600       0.75926750E-01   0.75926750E-01   0.66930109E-01   0.21449854       0.17098544E-03   0.55209590E-03    52610.318        0.0000000
  11552.000       0.75909715E-01   0.75909715E-01   0.66474468E-01   0.21403230       0.78760210E-04  -0.37350172E-04    52524.642        0.0000000
  11552.400       0.75989758E-01   0.75989758E-01   0.66018827E-01   0.21356616       0.14110531E-03  -0.15293796E-03    52645.662        0.0000000
  11552.800       0.76022599E-01   0.76022599E-01   0.65563186E-01   0.21310011      -0.43590155E-04  -0.11320476E-04    52699.672        0.0000000
  11553.200       0.75954886E-01   0.75954886E-01   0.65107545E-01   0.21263415       0.13204893E-03   0.75386558E-03    52735.300        0.0000000
  11553.600       0.76128238E-01   0.76128238E-01   0.64651904E-01   0.21216829       0.55950231E-03   0.45135625E-03    52710.518        0.0000000
  11554.000       0.76402488E-01   0.76402488E-01   0.64196263E-01   0.21170251       0.49313392E-03  -0.12310775E-03    52544.770        0.0000000
  11554.400       0.76522745E-01   0.76522745E-01   0.63740621E-01   0.21123683       0.46101611E-03   0.84814185E-03    52342.981        0.0000000
  11554.800       0.76771301E-01   0.76771301E-01   0.63284980E-01   0.21077123       0.11716474E-02   0.13241383E-02    52310.218        0.0000000
  11555.200       0.77460063E-01   0.77460063E-01   0.62829339E-01   0.21030573       0.15203268E-02   0.12478280E-03    52429.765        0.0000000
  11555.600       0.77987562E-01   0.77987562E-01   0.62373698E-01   0.20984032       0.12714736E-02   0.77666140E-04    52574.935        0.0000000
  11556.000       0.78477242E-01   0.78477242E-01   0.61918057E-01   0.20937500       0.15824597E-02   0.10349909E-02    52708.403        0.0000000
  11556.400       0.79253530E-01   0.79253530E-01   0.61462416E-01   0.20890977       0.20994664E-02   0.97100281E-03    52801.997        0.0000000
  11556.800       0.80156815E-01   0.80156815E-01   0.61006775E-01   0.20844463       0.23592619E-02   0.88627043E-03    52588.294        0.0000000
  11557.200       0.81140939E-01   0.81140939E-01   0.60551134E-01   0.20797958       0.28084827E-02   0.97304493E-03    52653.643        0.0000000
  11557.600       0.82403602E-01   0.82403602E-01   0.60095493E-01   0.20751463       0.31376979E-02   0.86800796E-03    52637.008        0.0000000
  11558.000       0.83651098E-01   0.83651098E-01   0.59639852E-01   0.20704977       0.35028891E-02   0.12499452E-02    52188.421        0.0000000
  11558.400       0.85205913E-01   0.85205913E-01   0.59184211E-01   0.20658499       0.41376541E-02   0.20582795E-02    52236.180        0.0000000
  11558.800       0.86961221E-01   0.86961221E-01   0.58728570E-01   0.20612031       0.51495127E-02   0.26978959E-02    52579.033        0.0000000
  11559.200       0.89325523E-01   0.89325523E-01   0.58272928E-01   0.20565572       0.62959708E-02   0.21189703E-02    52510.703        0.0000000
  11559.600       0.91997998E-01   0.91997998E-01   0.57817287E-01   0.20519122       0.68446889E-02   0.19074159E-02    52404.301        0.0000000
  11560.000       0.94801274E-01   0.94801274E-01   0.57361646E-01   0.20472681       0.78219035E-02   0.42716529E-02    52274.472        0.0000000
  11560.400       0.98255520E-01   0.98255520E-01   0.56906005E-01   0.20426250       0.10262011E-01   0.54785013E-02    52503.314        0.0000000
  11560.800       0.10301088       0.10301088       0.56450364E-01   0.20379827       0.12204705E-01   0.43234650E-02    52571.106        0.0000000
  11561.200       0.10801928       0.10801928       0.55994723E-01   0.20333414       0.13720783E-01   0.52395780E-02    52587.566        0.0000000
  11561.600       0.11398751       0.11398751       0.55539082E-01   0.20287009       0.16396367E-01   0.72088467E-02    52573.425        0.0000000
  11562.000       0.12113638       0.12113638       0.55083441E-01   0.20240614       0.19487861E-01   0.82644966E-02    52549.578        0.0000000
  11562.400       0.12957780       0.12957780       0.54627800E-01   0.20194228       0.23007964E-01   0.92430353E-02    52520.000        0.0000000
  11562.800       0.13954275       0.13954275       0.54172159E-01   0.20147851       0.26882289E-01   0.10279357E-01    52668.590        0.0000000
  11563.200       0.15108363       0.15108363       0.53716518E-01   0.20101483       0.31231450E-01   0.74561050E-02    52740.000        0.0000000
  11563.600       0.16452791       0.16452791       0.53260876E-01   0.20055125       0.32847173E-01  -0.46217164E-04    52622.261        0.0000000
  11564.000       0.17736137       0.17736137       0.52805235E-01   0.20008775       0.31194476E-01  -0.24086035E-02    52542.996        0.0000000
  11564.400       0.18948349       0.18948349       0.52349594E-01   0.19962434       0.30920290E-01  -0.22986700E-02    52594.946        0.0000000
  11564.800       0.20209760       -2041.1933       0.51893953E-01   0.19916103       0.29355540E-01  -0.85280804E-02    52545.391        13861.188
  11565.200       0.21296792       -2007.5664       0.51438312E-01   0.19869781       0.24097826E-01  -0.13283047E-01    52541.752        13632.934
  11565.600       0.22137586       -1974.3147       0.50982671E-01   0.19823468       0.18729102E-01  -0.12505923E-01    52687.081        13407.210
  11566.000       0.22795120       -1941.4360       0.50527030E-01   0.19777164       0.14093088E-01  -0.11325650E-01    52924.491        13184.006
  11566.400       0.23265033       -1908.9282       0.50071389E-01   0.19730869       0.96685825E-02  -0.10220498E-01    53011.140        12963.309
  11566.800       0.23568607       -1876.7893       0.49615748E-01   0.19684583       0.59166889E-02  -0.86639980E-02    52883.434        12745.104
  11567.200       0.23738368       -1845.0171       0.49160107E-01   0.19638307       0.27373841E-02  -0.83127329E-02    52762.850        12529.381
  11567.600       0.23787598       -1813.6095       0.48704466E-01   0.19592039      -0.73349740E-03  -0.79884752E-02    52777.180        12316.125
  11568.000       0.23679688       -1782.5645       0.48248825E-01   0.19545781      -0.36533960E-02  -0.66706737E-02    52971.264        12105.320
  11568.400       0.23495326       -1751.8798       0.47793183E-01   0.19499531      -0.60700364E-02  -0.66672171E-02    53130.437        11896.956
  11568.800       0.23194085       -1721.5534       0.47337542E-01   0.19453291      -0.89871697E-02  -0.66956955E-02    53044.625        11691.018
  11569.200       0.22776352       -1691.5831       0.46881901E-01   0.19407060      -0.11426593E-01  -0.41129191E-02    52890.230        11487.490
  11569.600       0.22279958       -1661.9669       0.46426260E-01   0.19360838      -0.12277505E-01  -0.91347391E-03    52714.547        11286.361
  11570.000       0.21794152       -1632.7027       0.45970619E-01   0.19314626      -0.12157372E-01   0.96788103E-04    52777.857        11087.622
  11570.400       0.21307368       -1603.7883       0.45514978E-01   0.19268422      -0.12200074E-01   0.96052195E-03    52699.210        10891.258
  11570.800       0.20818146       -1575.2216       0.45059337E-01   0.19222227      -0.11388954E-01   0.15604596E-02    52720.401        10697.256
  11571.200       0.20396252       -1547.0006       0.44603696E-01   0.19176042      -0.10951707E-01   0.19086303E-02    52659.753        10505.605
  11571.600       0.19942009       -1519.1231       0.44148055E-01   0.19129866      -0.98620500E-02   0.35560968E-02    52413.880        10316.284
  11572.000       0.19607288       -1491.5869       0.43692414E-01   0.19083699      -0.81068294E-02   0.36177725E-02    52229.959        10129.290
  11572.400       0.19293463       -1464.3901       0.43236773E-01   0.19037540      -0.69678321E-02   0.24926005E-02    52341.397        9944.6002
  11572.800       0.19049861       -1437.5304       0.42781132E-01   0.18991392      -0.61127490E-02   0.12706202E-02    52402.530        9762.2051
  11573.200       0.18804443       -1411.0059       0.42325490E-01   0.18945252      -0.59513359E-02   0.12042117E-02    52626.126        9582.0850
  11573.600       0.18573754       -1384.8142       0.41869849E-01   0.18899121      -0.51493797E-02   0.19190026E-02    52861.436        9404.2267
  11574.000       0.18392493       -1358.9535       0.41414208E-01   0.18853000      -0.44161339E-02   0.16820833E-02    52809.227        9228.6183
  11574.400       0.18220464       -1333.4214       0.40958567E-01   0.18806887      -0.38037130E-02   0.13143024E-02    52775.243        9055.2427
  11574.800       0.18088196       -1308.2160       0.40502926E-01   0.18760784      -0.33646920E-02   0.10100563E-02    52821.734        8884.0876
  11575.200       0.17951288       -1283.3351       0.40047285E-01   0.18714690      -0.29956680E-02   0.17868437E-02    52656.998        8715.1357
  11575.600       0.17848542       -1258.7766       0.39591644E-01   0.18668604      -0.19352170E-02   0.11830869E-02    52802.080        8548.3753
  11576.000       0.17796471       -1234.5385       0.39136003E-01   0.18622529      -0.20491985E-02   0.30717779E-03    52438.262        8383.7932
  11576.400       0.17684606       -1210.6185       0.38680362E-01   0.18576462      -0.16894748E-02   0.79662927E-03    52540.810        8221.3676
  11576.800       0.17661313       -1187.0146       0.38224721E-01   0.18530404      -0.14118950E-02   0.72592206E-03    52475.237        8061.0941
  11577.200       0.17571655       -1163.7246       0.37769080E-01   0.18484355      -0.11087371E-02   0.13432102E-02    52725.443        7902.9481
  11577.600       0.17572614       -1140.7466       0.37313438E-01   0.18438316      -0.33732689E-03   0.16528865E-03    52840.542        7746.9257
  11578.000       0.17544669       -1118.0782       0.36857797E-01   0.18392286      -0.97650623E-03  -0.21458543E-03    52677.502        7593.0047
  11578.400       0.17494494       -1095.7176       0.36402156E-01   0.18346264      -0.50899524E-03   0.39097685E-03    52707.950        7441.1709
  11578.800       0.17503949       -1073.6624       0.35946515E-01   0.18300252      -0.66372475E-03  -0.51848290E-03    52608.306        7291.4158
  11579.200       0.17441396       -1051.9107       0.35490874E-01   0.18254249      -0.92378155E-03   0.79157975E-03    52625.795        7143.7161
  11579.600       0.17430047       -1030.4602       0.35035233E-01   0.18208255      -0.30460943E-04   0.77102140E-03    52605.275        6998.0657
  11580.000       0.17438959       -1009.3090       0.34579592E-01   0.18162271      -0.30696443E-03  -0.70333619E-03    52787.406        6854.4483
  11580.400       0.17405489       -988.45487       0.34123951E-01   0.18116295      -0.59312989E-03  -0.86797163E-03    52761.723        6712.8453
  11580.800       0.17391508       -967.89571       0.33668310E-01   0.18070329      -0.10013417E-02  -0.65865478E-03    52772.878        6573.2465
  11581.200       0.17325382       -947.62942       0.33212669E-01   0.18024371      -0.11200537E-02   0.52598236E-04    52539.989        6435.6328
  11581.600       0.17301904       -927.65389       0.32757028E-01   0.17978423      -0.95926315E-03  -0.41915277E-04    52616.253        6299.9963
  11582.000       0.17248641       -907.96702       0.32301387E-01   0.17932484      -0.11535859E-02  -0.77036073E-03    52531.283        6166.3177
  11582.400       0.17209617       -888.56668       0.31845745E-01   0.17886554      -0.15755517E-02  -0.75233349E-03    52678.059        6034.5856
  11582.800       0.17122597       -869.45077       0.31390104E-01   0.17840633      -0.17554527E-02  -0.42643892E-03    52400.571        5904.7817
  11583.200       0.17069181       -850.61718       0.30934463E-01   0.17794721      -0.19167029E-02  -0.38277671E-04    52545.488        5776.8969
  11583.600       0.16969261       -832.06380       0.30478822E-01   0.17748818      -0.17860749E-02   0.10980738E-02    52632.305        5650.9116
  11584.000       0.16926295       -813.78852       0.30023181E-01   0.17702925      -0.10382439E-02   0.43303331E-03    52693.654        5526.8185
  11584.400       0.16886201       -795.78923       0.29567540E-01   0.17657041      -0.14396482E-02  -0.92140206E-03    52709.459        5404.5996
  11584.800       0.16811123       -778.06381       0.29111899E-01   0.17611165      -0.17753655E-02  -0.51905729E-03    52638.604        5284.2380
  11585.200       0.16744172       -760.61017       0.28656258E-01   0.17565299      -0.18548940E-02   0.24297814E-03    52435.995        5165.7223
  11585.600       0.16662732       -743.42619       0.28200617E-01   0.17519442      -0.15809830E-02   0.10060015E-02    52865.619        5049.0365
  11586.000       0.16617693       -726.50975       0.27744976E-01   0.17473594      -0.10500929E-02   0.84065694E-03    52786.112        4934.1699
  11586.400       0.16578724       -709.85876       0.27289335E-01   0.17427755      -0.90845745E-03  -0.13339472E-03    52734.853        4821.1061
  11586.800       0.16545017       -693.47109       0.26833694E-01   0.17381926      -0.11568087E-02  -0.46554218E-03    52599.505        4709.8307
  11587.200       0.16486179       -677.34465       0.26378052E-01   0.17336105      -0.12808912E-02   0.40571195E-03    52679.683        4600.3272
  11587.600       0.16442545       -661.47731       0.25922411E-01   0.17290294      -0.83223910E-03   0.14119132E-02    52806.483        4492.5842
  11588.000       0.16419600       -645.86697       0.25466770E-01   0.17244491      -0.15136065E-03   0.38120551E-03    52660.177        4386.5875
  11588.400       0.16430437       -630.51153       0.25011129E-01   0.17198698      -0.52727470E-03  -0.39931957E-03    52636.747        4282.3239
  11588.800       0.16377418       -615.40886       0.24555488E-01   0.17152914      -0.47081631E-03   0.96251317E-03    52414.798        4179.7724
  11589.200       0.16392771       -600.55686       0.24099847E-01   0.17107139       0.24273584E-03   0.45123661E-03    52573.079        4078.9275
  11589.600       0.16396837       -585.95341       0.23644206E-01   0.17061373      -0.10982702E-03   0.12944835E-03    52674.159        3979.7696
  11590.000       0.16383985       -571.59642       0.23188565E-01   0.17015617       0.34629452E-03   0.43224950E-03    52659.593        3882.2839
  11590.400       0.16424541       -557.48377       0.22732924E-01   0.16969869       0.23597258E-03  -0.32249785E-03    52452.071        3786.4610
  11590.800       0.16402863       -543.61334       0.22277283E-01   0.16924131       0.88296238E-04   0.79776545E-04    52175.940        3692.2786
  11591.200       0.16431604       -529.98304       0.21821642E-01   0.16878401       0.29979382E-03   0.15236591E-03    52385.684        3599.7300
  11591.600       0.16426846       -516.59074       0.21366000E-01   0.16832681       0.21018896E-03   0.91951174E-04    52357.779        3508.7952
  11592.000       0.16448420       -503.43434       0.20910359E-01   0.16786970       0.37335476E-03   0.32765118E-03    52335.241        3419.4640
  11592.400       0.16456715       -490.51173       0.20454718E-01   0.16741268       0.47230991E-03  -0.29707374E-03    52323.702        3331.7193
  11592.800       0.16486204       -477.82080       0.19999077E-01   0.16695575       0.13569577E-03  -0.17124633E-03    52377.869        3245.5492
  11593.200       0.16467570       -465.35944       0.19543436E-01   0.16649891       0.33531285E-03   0.50761160E-03    52427.076        3160.9346
  11593.600       0.16513029       -453.12554       0.19087795E-01   0.16604217       0.54178505E-03  -0.11282646E-02    52387.909        3077.8688
  11594.000       0.16510913       -441.11699       0.18632154E-01   0.16558551      -0.56729882E-03  -0.14912737E-02    52413.882        2996.3299
  11594.400       0.16467646       -429.33167       0.18176513E-01   0.16512895      -0.65123393E-03   0.10482148E-03    52120.029        2916.3041
  11594.800       0.16458815       -417.76748       0.17720872E-01   0.16467248      -0.48344164E-03   0.11459700E-03    51860.959        2837.7820
  11595.200       0.16428970       -406.42232       0.17265231E-01   0.16421609      -0.55955633E-03  -0.52835791E-03    51553.436        2760.7456
  11595.600       0.16414050       -395.29406       0.16809590E-01   0.16375980      -0.90612797E-03  -0.56299227E-03    51566.934        2685.1831
  11596.000       0.16356480       -384.38059       0.16353949E-01   0.16330360      -0.10099501E-02   0.14857229E-03    51573.397        2611.0762
  11596.400       0.16333254       -373.67982       0.15898307E-01   0.16284750      -0.78727013E-03   0.55673462E-04    51976.703        2538.4158
  11596.800       0.16293498       -363.18963       0.15442666E-01   0.16239148      -0.96541138E-03  -0.40233439E-03    52073.877        2467.1841
  11597.200       0.16256021       -352.90790       0.14987025E-01   0.16193556      -0.11091376E-02  -0.11027757E-02    52387.063        2397.3681
  11597.600       0.16204767       -342.83253       0.14531384E-01   0.16147972      -0.18476319E-02  -0.84123346E-03    51743.582        2328.9523
  11598.000       0.16108211       -332.96142       0.14075743E-01   0.16102398      -0.17821244E-02   0.68498403E-03    51030.822        2261.9203
  11598.400       0.16062197       -323.29243       0.13620102E-01   0.16056833      -0.12996447E-02   0.63191561E-03    53048.370        2196.2642
  11598.800       0.16004239       -313.82348       0.13164461E-01   0.16011277      -0.12765919E-02  -0.24310181E-03    53060.806        2131.9656
  11599.200       0.15960070       -304.55245       0.12708820E-01   0.15965730      -0.14941261E-02  -0.51195166E-03    53165.044        2069.0117
  11599.600       0.15884709       -295.47722       0.12253179E-01   0.15920192      -0.16861532E-02   0.13538392E-03    53315.630        2007.3853
  11600.000       0.15825178       -286.59569       0.11797538E-01   0.15874663      -0.13858190E-02   0.46740595E-04    53380.166        1947.0752
  11600.400       0.15773843       -277.90575       0.11341897E-01   0.15829144      -0.16487608E-02  -0.86736444E-04    53355.575        1888.0666
  11600.800       0.15693277       -269.40529       0.10886255E-01   0.15783633      -0.14552081E-02   0.19077217E-03    53158.538        1830.3425
  11601.200       0.15657427       -261.09220       0.10430614E-01   0.15738132      -0.14961430E-02  -0.48861038E-03    53091.908        1773.8937
  11601.600       0.15573585       -252.96436       0.99749733E-02   0.15692640      -0.18460965E-02   0.37513717E-03    53096.179        1718.6995
  11602.000       0.15509739       -245.01968       0.95193322E-02   0.15647157      -0.11960333E-02   0.76807382E-03    53284.811        1664.7503
  11602.400       0.15477903       -237.25603       0.90636912E-02   0.15601683      -0.12316374E-02  -0.77210735E-03    53125.092        1612.0326
  11602.800       0.15411208       -229.67131       0.86080501E-02   0.15556218      -0.18137192E-02  -0.22153616E-03    53135.934        1560.5274
  11603.200       0.15332805       -222.26340       0.81524090E-02   0.15510762      -0.14088663E-02   0.11576720E-02    53121.985        1510.2220
  11603.600       0.15298499       -215.03021       0.76967679E-02   0.15465316      -0.88758159E-03   0.48787215E-04    52956.419        1461.1058
  11604.000       0.15261799       -207.96961       0.72411268E-02   0.15419878      -0.13698365E-02  -0.62683565E-03    53051.856        1413.1615
  11604.400       0.15188912       -201.07950       0.67854857E-02   0.15374450      -0.13890501E-02   0.31111827E-03    52919.839        1366.3723
  11604.800       0.15150675       -194.35777       0.63298446E-02   0.15329031      -0.11209419E-02   0.57642643E-03    52597.528        1320.7288
  11605.200       0.15099236       -187.80230       0.58742035E-02   0.15283621      -0.92790897E-03   0.40792731E-03    52534.642        1276.2133
  11605.600       0.15076442       -181.41100       0.54185625E-02   0.15238220      -0.79460008E-03  -0.20233487E-03    52407.053        1232.8145
  11606.000       0.15035668       -175.18174       0.49629214E-02   0.15192828      -0.10897769E-02   0.11359651E-03    52286.449        1190.5147
  11606.400       0.14989260       -169.11242       0.45072803E-02   0.15147445      -0.70372287E-03  -0.25187704E-03    52483.349        1149.3005
  11606.800       0.14979371       -163.20093       0.40516392E-02   0.15102071      -0.12912785E-02  -0.13090938E-02    52519.218        1109.1605
  11607.200       0.14885958       -157.44515       0.35959981E-02   0.15056707      -0.17509979E-02   0.57720526E-03    52533.948        1070.0721
  11607.600       0.14839291       -151.84298       0.31403570E-02   0.15011351      -0.82951429E-03   0.13849639E-02    52647.095        1032.0299
  11608.000       0.14819596       -146.39231       0.26847159E-02   0.14966005      -0.64302672E-03  -0.19030208E-03    52721.306        995.01818
  11608.400       0.14787849       -141.09103       0.22290749E-02   0.14920668      -0.98175595E-03  -0.51511531E-03    52888.196        959.02002
  11608.800       0.14741056       -135.93702       0.17734338E-02   0.14875340      -0.10551190E-02   0.66584370E-04    52888.917        924.02086
  11609.200       0.14703439       -130.92818       0.13177927E-02   0.14830021      -0.92848846E-03  -0.49362914E-05    52784.155        890.00802
  11609.600       0.14666777       -126.06240       0.86215160E-03   0.14784711      -0.10590680E-02  -0.23486683E-04    53056.753        856.96661
  11610.000       0.14618714       -121.33757       0.40651052E-03   0.14739411      -0.94727780E-03   0.61527012E-03    53046.891        824.88146
  11610.400       0.14590995       -116.75157      -0.49130567E-04   0.14694119      -0.56685191E-03   0.66938780E-03    52963.313        793.74041
  11610.800       0.14573365       -112.30231      -0.50477165E-03   0.14648837      -0.41176756E-03   0.89132246E-04    52902.697        763.52844
  11611.200       0.14558053       -107.98765      -0.96041274E-03   0.14603564      -0.49554611E-03  -0.57958333E-03    52823.142        734.23068
  11611.600       0.14533722       -103.80551      -0.14160538E-02   0.14558299      -0.87543423E-03  -0.40999268E-03    52863.627        705.83203
  11612.000       0.14488019       -99.753764      -0.18716949E-02   0.14513044      -0.82354025E-03  -0.16226123E-03    52990.978        678.31734
  11612.400       0.14467839       -95.830304      -0.23273360E-02   0.14467798      -0.10052432E-02   0.76989557E-04    52812.073        651.67547
  11612.800       0.14407599       -92.033022      -0.27829771E-02   0.14422562      -0.76194861E-03   0.11419260E-02    52734.204        625.88762
  11613.200       0.14406883       -88.359807      -0.32386182E-02   0.14377334      -0.91702385E-04   0.20635400E-03    52806.072        600.94623
  11613.600       0.14400263       -84.808549      -0.36942593E-02   0.14332115      -0.59686541E-03  -0.12835788E-02    52855.145        576.83254
  11614.000       0.14359133       -81.377138      -0.41499003E-02   0.14286906      -0.11185655E-02   0.35540816E-03    52761.146        553.53028
  11614.000       0.14355520       -81.259183      -0.41499003E-02   0.14286906      -0.45470214E-03   0.39965348E-03    52640.000        552.72912
  11615.400       0.14295475       -70.280531      -0.57446441E-02   0.14128745      -0.55905059E-03  -0.65069885E-04    52633.333        478.17938
  11616.809       0.14198483       -60.477268      -0.73496399E-02   0.13969680      -0.63748345E-03  -0.58185141E-04    52682.500        411.60809
  11618.237       0.14114621       -51.844358      -0.89762785E-02   0.13808585      -0.72412183E-03  -0.14377820E-03    52750.000        352.98446
  11619.684       0.13990298       -44.336212      -0.10624560E-01   0.13645466      -0.10508458E-02  -0.14283412E-03    52597.500        301.99529
  11621.150       0.13808510       -37.900119      -0.12294485E-01   0.13480326      -0.11401976E-02  -0.44207592E-04    52580.000        258.28152
  11622.635       0.13653826       -32.475990      -0.13986052E-01   0.13313171      -0.11813024E-02  -0.72886149E-04    52623.333        221.44088
  11624.140       0.13455300       -27.993429      -0.15700402E-01   0.13143893      -0.13581272E-02  -0.96579427E-04    52842.500        190.99056
  11625.663       0.13242585       -24.382699      -0.17435255E-01   0.12972722      -0.14737449E-02  -0.60217991E-04    52877.500        166.45906
  11627.205       0.13003598       -21.556678      -0.19191752E-01   0.12799551      -0.15426954E-02  -0.43450744E-05    52765.000        147.25399
  11628.766       0.12763886       -19.423102      -0.20969891E-01   0.12624383      -0.14872277E-02   0.20462785E-04    52652.500        132.75061
  11630.347       0.12536311       -17.880179      -0.22770812E-01   0.12447113      -0.14784013E-02  -0.68096647E-05    52367.500        122.25863
  11631.946       0.12293755       -16.819807      -0.24592238E-01   0.12267969      -0.15088824E-02  -0.68479957E-05    52472.500        115.04218
  11633.565       0.12050752       -16.121212      -0.26436445E-01   0.12086734      -0.15004381E-02   0.24091711E-04    52747.500        110.28218
  11635.202       0.11805212       -15.656343      -0.28301156E-01   0.11903635      -0.14304398E-02   0.54180405E-04    52720.000        107.10902
  11636.859       0.11579565       -15.286941      -0.30188649E-01   0.11718455      -0.13219679E-02   0.26124261E-04    52607.500        104.58544
  11638.534       0.11364732       -14.925800      -0.32096646E-01   0.11531422      -0.13433937E-02  -0.12716649E-04    52480.000        102.11868
  11640.229       0.11126842       -14.566195      -0.34027425E-01   0.11342319      -0.13648230E-02   0.23277289E-04    52614.000        99.660792
  11641.943       0.10899464       -14.208493      -0.35979847E-01   0.11151263      -0.12640415E-02   0.36197298E-04    52665.000        97.216535
  11643.676       0.10691127       -13.852842      -0.37953913E-01   0.10958259      -0.12400509E-02   0.11758508E-04    52502.500        94.787499
  11645.427       0.10467430       -13.499589      -0.39948481E-01   0.10763424      -0.12230748E-02   0.16310444E-04    52602.000        92.373707
  11647.198       0.10260360       -13.148478      -0.41965832E-01   0.10566542      -0.11826055E-02   0.16784185E-04    52737.500        89.975583
  11648.988       0.10046305       -12.799857      -0.44004826E-01   0.10367729      -0.11633063E-02   0.22014453E-04    52870.000        87.593890
  11650.797       0.98416857E-01   -12.453869      -0.46065463E-01   0.10166992      -0.11033755E-02   0.33081024E-04    52880.000        85.230718
  11652.625       0.96450070E-01   -12.110656      -0.48147743E-01   0.99643355E-01  -0.10429907E-02   0.40229537E-04    52546.000        82.886927
  11654.472       0.94583866E-01   -11.770358      -0.50251665E-01   0.97597662E-01  -0.95553195E-03   0.82907624E-05    52565.000        80.563615
  11656.339       0.92901224E-01   -11.432936      -0.52378370E-01   0.95531795E-01  -0.10121988E-02  -0.17162239E-04    52530.000        78.261073
  11658.224       0.90786096E-01   -11.098887      -0.54525579E-01   0.93448025E-01  -0.10199247E-02   0.30448653E-04    52494.000        75.978502
  11660.128       0.89036729E-01   -10.768164      -0.56694430E-01   0.91345309E-01  -0.89682881E-03   0.43068506E-04    52194.000        73.720998
  11662.051       0.87353933E-01   -10.440901      -0.58884925E-01   0.89223707E-01  -0.85510150E-03   0.12065876E-05    52225.000        71.487435
  11663.994       0.85730907E-01   -10.117063      -0.61098201E-01   0.87082181E-01  -0.89216414E-03  -0.34082641E-04    52248.000        69.277535
  11665.955       0.83870924E-01   -9.7971119      -0.63331982E-01   0.84922998E-01  -0.98816013E-03  -0.26300879E-04    52364.000        67.092422
  11667.935       0.81836568E-01   -9.4810066      -0.65587405E-01   0.82745119E-01  -0.99581591E-03   0.36716444E-05    52174.000        64.932236
  11669.935       0.79907576E-01   -9.1687164      -0.67865611E-01   0.80547511E-01  -0.97354699E-03  -0.30031716E-06    52018.000        62.798671
  11671.953       0.77924856E-01   -8.8606754      -0.70164320E-01   0.78332434E-01  -0.99702258E-03   0.10581058E-04    52220.000        60.693592
  11673.991       0.75863653E-01   -8.5566972      -0.72485811E-01   0.76097761E-01  -0.93063022E-03   0.18349002E-04    52182.000        58.615568
  11676.048       0.74113926E-01   -8.2570525      -0.74828946E-01   0.73844656E-01  -0.92188342E-03  -0.23854526E-04    52060.000        56.569083
  11678.123       0.72054431E-01   -7.9619953      -0.77192584E-01   0.71574278E-01  -0.10291971E-02  -0.38890533E-04    51928.000        54.551644
  11680.218       0.69822174E-01   -7.6713516      -0.79579004E-01   0.69284507E-01  -0.10840569E-02   0.47173322E-06    52128.333        52.563000
  11682.332       0.67491635E-01   -7.3853730      -0.81987067E-01   0.66976506E-01  -0.10272116E-02   0.15201179E-04    52366.000        50.605365
  11684.465       0.65459606E-01   -7.1041638      -0.84416773E-01   0.64650344E-01  -0.10194975E-02  -0.18613640E-04    51802.000        48.682141
  11686.616       0.63124107E-01   -6.8279519      -0.86866983E-01   0.62307178E-01  -0.11069524E-02  -0.96464615E-06    51808.000        46.790789
  11688.787       0.60675358E-01   -6.5565781      -0.89339975E-01   0.59944900E-01  -0.10236667E-02   0.21413639E-04    52078.333        44.931518
  11690.977       0.58659897E-01   -6.2902668      -0.91834610E-01   0.57564670E-01  -0.10135675E-02  -0.20975902E-04    52140.000        43.109565
  11693.186       0.56216674E-01   -6.0291087      -0.94350888E-01   0.55166559E-01  -0.11159397E-02  -0.27521204E-04    52128.333        41.319698
  11695.414       0.53708472E-01   -5.7731908      -0.96888809E-01   0.52750640E-01  -0.11356791E-02   0.42856001E-07    51794.000        39.564970
  11697.662       0.51133374E-01   -5.5224862      -0.99449512E-01   0.50315902E-01  -0.11157479E-02  -0.13196602E-05    51973.333        37.845187
  11699.928       0.48671986E-01   -5.2772972      -0.10203072       0.47864585E-01  -0.11416361E-02  -0.18959848E-04    51762.000        36.163627
  11702.213       0.45937788E-01   -5.0375857      -0.10463357       0.45395677E-01  -0.12020342E-02  -0.18940914E-04    51615.000        34.517407
  11704.517       0.43155851E-01   -4.8034225      -0.10725806       0.42909255E-01  -0.12285559E-02  -0.99066954E-06    51431.667        32.908536
  11706.841       0.40252032E-01   -4.5747775      -0.10990534       0.40404314E-01  -0.12066190E-02   0.22337032E-04    51556.667        31.336307
  11709.183       0.37525767E-01   -4.3519097      -0.11257311       0.37883087E-01  -0.11243313E-02   0.22169024E-04    51334.000        29.804511
  11711.544       0.34964301E-01   -4.1347765      -0.11526254       0.35344571E-01  -0.11023581E-02  -0.22159459E-05    51378.333        28.312772
  11713.925       0.32298385E-01   -3.9233438      -0.11797474       0.32787769E-01  -0.11348394E-02  -0.63208363E-05    51280.000        26.859030
  11716.324       0.29539769E-01   -3.7178372      -0.12070745       0.30214907E-01  -0.11325717E-02   0.26371442E-05    51361.667        25.444898
  11718.743       0.26841655E-01   -3.5181286      -0.12346294       0.27623918E-01  -0.11221336E-02   0.15518907E-04    51228.333        24.070545
  11721.181       0.24089566E-01   -3.3243431      -0.12624007       0.25015953E-01  -0.10571963E-02   0.26320049E-04    51165.000        22.736044
  11723.637       0.21667736E-01   -3.1365887      -0.12903770       0.22392159E-01  -0.99332327E-03   0.20412996E-04    50940.000        21.444737
  11726.113       0.19190496E-01   -2.9547401      -0.13185812       0.19750480E-01  -0.95651944E-03  -0.71054521E-05    50715.000        20.193154
  11728.608       0.16912878E-01   -2.7788972      -0.13470018       0.17092064E-01  -0.10286445E-02  -0.22012076E-04    50780.000        18.983706
  11731.122       0.14038016E-01   -2.6090766      -0.13756389       0.14416994E-01  -0.10667779E-02   0.99761606E-05    50851.429        17.811094
  11733.655       0.11528850E-01   -2.4452892      -0.14044924       0.11725350E-01  -0.97829479E-03   0.28368867E-04    50651.667        16.681931
  11736.206       0.90643651E-02   -2.2876004      -0.14335509       0.90182753E-02  -0.92255061E-03   0.42277467E-05    50561.667        15.594481
  11738.777       0.68035453E-02   -2.1358855      -0.14628372       0.62937308E-02  -0.95664027E-03  -0.18757595E-04    50560.000        14.548978
  11741.367       0.41271447E-02   -1.9902007      -0.14923400       0.35528617E-02  -0.10193586E-02  -0.43657617E-05    50617.143        13.541597
  11743.977       0.15028808E-02   -1.8504805      -0.15220705       0.79469621E-03  -0.97934223E-03   0.33844092E-05    50348.333        12.575070
  11746.605      -0.10026499E-02   -1.7168121      -0.15520062      -0.19785674E-02  -0.10016310E-02  -0.44652567E-05    50194.286        11.650442
  11749.252      -0.37807228E-02   -1.5891145      -0.15821582      -0.47679013E-02  -0.10028965E-02   0.45203596E-05    50073.333        10.764505
  11751.918      -0.63310388E-02   -1.4673548      -0.16125267      -0.75732195E-02  -0.97761435E-03  -0.28861747E-05    50222.857        9.9204324
  11754.603      -0.90119372E-02   -1.3514932      -0.16431116      -0.10394435E-01  -0.10183404E-02  -0.10153968E-04    50071.667        9.1155225
  11757.308      -0.11819893E-01   -1.2414437      -0.16739243      -0.13232510E-01  -0.10323442E-02   0.15135911E-05    50041.429        8.3492139
  11760.031      -0.14615502E-01   -1.1372339      -0.17049421      -0.16085257E-01  -0.10101246E-02   0.71620078E-06    49762.857        7.6226410
  11762.773      -0.17340224E-01   -1.0387608      -0.17361763      -0.18953638E-01  -0.10284302E-02  -0.14841168E-04    49953.333        6.9355026
  11765.535      -0.20275982E-01  -0.94592383      -0.17676383      -0.21838607E-01  -0.10918104E-02  -0.15516735E-04    49771.429        6.2852003
  11768.315      -0.23391038E-01  -0.85871424      -0.17993054      -0.24737987E-01  -0.11144239E-02   0.10430722E-05    49550.000        5.6718909
  11771.115      -0.26494467E-01  -0.77698569      -0.18312002      -0.27653771E-01  -0.10859901E-02   0.18113450E-05    49495.714        5.0958771
  11773.934      -0.29493216E-01  -0.70067920      -0.18633115      -0.30584827E-01  -0.11042460E-02  -0.57018611E-05    49347.143        4.5573901
  11776.771      -0.32740083E-01  -0.62971936      -0.18956279      -0.33530024E-01  -0.11182398E-02  -0.14381618E-05    49218.571        4.0535225
  11779.628      -0.35860473E-01  -0.56394867      -0.19281720      -0.36491347E-01  -0.11124349E-02   0.81159044E-05    49408.571        3.5857482
  11782.504      -0.39117672E-01  -0.50327736      -0.19609326      -0.39467664E-01  -0.10717113E-02   0.79153540E-05    49340.000        3.1516701
  11785.399      -0.42045319E-01  -0.44758126      -0.19939097      -0.42458882E-01  -0.10667554E-02  -0.41242152E-05    49294.286        2.7536116
  11788.313      -0.45314454E-01  -0.39672760      -0.20271031      -0.45464906E-01  -0.10956689E-02   0.31159702E-05    49162.857        2.3861148
  11791.245      -0.48450599E-01  -0.35058982      -0.20605016      -0.48484613E-01  -0.10485394E-02   0.96620649E-05    49432.857        2.0515421
  11794.197      -0.51484060E-01  -0.30898618      -0.20941279      -0.51519967E-01  -0.10388173E-02  -0.19979676E-05    49050.000        1.7484537
  11797.168      -0.54603514E-01  -0.27177391      -0.21279707      -0.54569841E-01  -0.10603734E-02   0.19157962E-05    49030.000        1.4745991
  11800.159      -0.57806006E-01  -0.23877417      -0.21620412      -0.57635164E-01  -0.10273953E-02   0.16216544E-04    48927.500        1.2287839
  11803.168      -0.60767886E-01  -0.20983110      -0.21963168      -0.60713788E-01  -0.96307412E-03   0.26100140E-05    49028.571        1.0121475
  11806.196      -0.63620084E-01  -0.18474558      -0.22308089      -0.63806640E-01  -0.10116386E-02  -0.12214985E-04    48964.286       0.82244882
  11809.243      -0.66913590E-01  -0.16332059      -0.22655173      -0.66913624E-01  -0.10372802E-02   0.70526193E-06    48811.250       0.65460888
  11812.309      -0.69960978E-01  -0.14534932      -0.23004422      -0.70034639E-01  -0.10073274E-02  -0.35176504E-06    48885.714       0.51189105
  11815.395      -0.73110668E-01  -0.13061073      -0.23355949      -0.73170602E-01  -0.10394442E-02  -0.87298239E-07    48670.000       0.39042859
  11818.499      -0.76395138E-01  -0.11888736      -0.23709527      -0.76319379E-01  -0.10078678E-02   0.54347431E-05    48511.429       0.28852454
  11821.622      -0.79386661E-01  -0.10993669      -0.24065268      -0.79481887E-01  -0.10056021E-02  -0.56751191E-05    48651.250       0.20743640
  11824.765      -0.82696240E-01  -0.10350938      -0.24423288      -0.82659035E-01  -0.10434280E-02  -0.32592172E-05    48528.571       0.14132237
  11827.926      -0.85964431E-01  -0.99351131E-01  -0.24783359      -0.85848698E-01  -0.10261482E-02   0.14561135E-05    48551.250       0.90896434E-01
  11831.107      -0.89204072E-01  -0.97190012E-01  -0.25145707      -0.89052793E-01  -0.10341934E-02  -0.25550598E-05    48342.500       0.54224978E-01
  11834.307      -0.92563619E-01  -0.96747345E-01  -0.25510220      -0.92270205E-01  -0.10424520E-02   0.35834181E-05    47982.500       0.28407727E-01
  11837.525      -0.95894529E-01  -0.97731157E-01  -0.25876783      -0.95499827E-01  -0.10111950E-02  -0.21317031E-05    48251.429       0.12470804E-01
  11840.763      -0.99091894E-01  -0.99839364E-01  -0.26245625      -0.98743564E-01  -0.10562143E-02  -0.10891931E-04    48323.750       0.50753579E-02
  11844.020      -0.10275464      -0.10275762      -0.26616631      -0.10200030      -0.10819381E-02  -0.72885759E-06    48062.500       0.20203630E-04
  11847.296      -0.10616020      -0.10616002      -0.26989801      -0.10526994      -0.10609759E-02   0.64823640E-05    48131.250      -0.11776330E-05
  11850.591      -0.10972631      -0.10970887      -0.27365135      -0.10855237      -0.10393425E-02   0.18551217E-04    48100.000      -0.11841212E-03
  11853.904      -0.11302817      -0.11305354      -0.27742520      -0.11184649      -0.93838947E-03   0.28180238E-04    47840.000       0.17223515E-03
  11856.659      -0.11542046      -0.11540973      -0.28056343      -0.11458103      -0.86834479E-03   0.25424565E-04    47853.333      -0.72847503E-04
